# f[Hz],U_C[V],a_gemessen[ms],a[ms]
20,1.000,25.000,0.000
50,0.960,9.200,0.800
100,0.900,4.200,0.800
200,0.700,1.850,0.650
300,0.550,1.150,0.517
400,0.450,0.800,0.450
500,0.360,0.620,0.380
600,0.300,0.500,0.333
800,0.240,0.360,0.265
1000,0.200,0.280,0.220
2000,0.100,0.130,0.120
3000,0.067,0.085,0.082
4500,0.044,0.056,0.055
6000,0.034,0.042,0.041
10000,0.020,0.025,0.025
